04  1   1   1   1
Liquid Pressure (MPa), (MPa)
Saturation, (no dim)
Porosity, (no dim)
Liquid Density (kg/m**3), (kg/m**3)
0000000001   2.39406570    1.00000000   0.101011850E-02    991.707047
0000000002   2.39012538    1.00000000   0.101011850E-02    991.705090
0000000003   2.38618505    1.00000000   0.101011850E-02    991.703133
0000000004   2.38224472    1.00000000   0.101011850E-02    991.701176
0000000005   2.37830438    1.00000000   0.101011850E-02    991.699218
0000000006   2.37436403    1.00000000   0.101011850E-02    991.697261
0000000007   2.37042368    1.00000000   0.101011850E-02    991.695304
0000000008   2.36648332    1.00000000   0.101011850E-02    991.693346
0000000009   2.36254295    1.00000000   0.101011850E-02    991.691388
0000000010   2.35860258    1.00000000   0.101011850E-02    991.689431
0000000011   2.35466220    1.00000000   0.101011850E-02    991.687473
0000000012   2.35072181    1.00000000   0.101011850E-02    991.685515
0000000013   2.34678142    1.00000000   0.101011850E-02    991.683557
0000000014   2.34284101    1.00000000   0.101011850E-02    991.681599
0000000015   2.33890061    1.00000000   0.101011850E-02    991.679641
0000000016   2.33496019    1.00000000   0.101011850E-02    991.677682
0000000017   2.33101977    1.00000000   0.101011850E-02    991.675724
0000000018   2.32707934    1.00000000   0.101011850E-02    991.673765
0000000019   2.32313891    1.00000000   0.101011850E-02    991.671807
0000000020   2.31919847    1.00000000   0.101011850E-02    991.669848
0000000021   2.31525802    1.00000000   0.101011850E-02    991.667889
0000000022   2.31131756    1.00000000   0.101011850E-02    991.665930
0000000023   2.30737710    1.00000000   0.101011850E-02    991.663971
0000000024   2.30343663    1.00000000   0.101011850E-02    991.662012
0000000025   2.29949616    1.00000000   0.101011850E-02    991.660052
0000000026   2.29555567    1.00000000   0.101011850E-02    991.658093
0000000027   2.29161518    1.00000000   0.101011850E-02    991.656134
0000000028   2.28767469    1.00000000   0.101011850E-02    991.654174
0000000029   2.28373418    1.00000000   0.101011850E-02    991.652214
0000000030   2.27979367    1.00000000   0.101011850E-02    991.650254
0000000031   2.27585316    1.00000000   0.101011850E-02    991.648295
0000000032   2.27191263    1.00000000   0.101011850E-02    991.646335
0000000033   2.26797210    1.00000000   0.101011850E-02    991.644374
0000000034   2.26403157    1.00000000   0.101011850E-02    991.642414
0000000035   2.26009102    1.00000000   0.101011850E-02    991.640454
0000000036   2.25615047    1.00000000   0.101011850E-02    991.638494
0000000037   2.25220992    1.00000000   0.101011850E-02    991.636533
0000000038   2.24826935    1.00000000   0.101011850E-02    991.634572
0000000039   2.24432878    1.00000000   0.101011850E-02    991.632612
0000000040   2.24038820    1.00000000   0.101011850E-02    991.630651
0000000041   2.23644762    1.00000000   0.101011850E-02    991.628690
0000000042   2.23250703    1.00000000   0.101011850E-02    991.626729
0000000043   2.22856643    1.00000000   0.101011850E-02    991.624768
0000000044   2.22462582    1.00000000   0.101011850E-02    991.622807
0000000045   2.22068521    1.00000000   0.101011850E-02    991.620845
0000000046   2.21674459    1.00000000   0.101011850E-02    991.618884
0000000047   2.21280397    1.00000000   0.101011850E-02    991.616922
0000000048   2.20886333    1.00000000   0.101011850E-02    991.614961
0000000049   2.20492269    1.00000000   0.101011850E-02    991.612999
0000000050   2.20098205    1.00000000   0.101011850E-02    991.611037
0000000051   2.17339733    1.00000000   0.101011850E-02    991.597301
0000000052   2.16945662    1.00000000   0.101011850E-02    991.595338
0000000053   2.16551592    1.00000000   0.101011850E-02    991.593375
0000000054   2.16157520    1.00000000   0.101011850E-02    991.591413
0000000055   2.15763448    1.00000000   0.101011850E-02    991.589450
0000000056   2.15369375    1.00000000   0.101011850E-02    991.587486
0000000057   2.14975302    1.00000000   0.101011850E-02    991.585523
0000000058   2.14581228    1.00000000   0.101011850E-02    991.583560
0000000059   2.14187153    1.00000000   0.101011850E-02    991.581596
0000000060   2.13793077    1.00000000   0.101011850E-02    991.579633
0000000061   2.13399001    1.00000000   0.101011850E-02    991.577669
0000000062   2.13004924    1.00000000   0.101011850E-02    991.575706
0000000063   2.12610846    1.00000000   0.101011850E-02    991.573742
0000000064   2.12216768    1.00000000   0.101011850E-02    991.571778
0000000065   2.11822689    1.00000000   0.101011850E-02    991.569814
0000000066   2.11428609    1.00000000   0.101011850E-02    991.567850
0000000067   2.11034529    1.00000000   0.101011850E-02    991.565885
0000000068   2.10640448    1.00000000   0.101011850E-02    991.563921
0000000069   2.10246366    1.00000000   0.101011850E-02    991.561957
0000000070   2.09852284    1.00000000   0.101011850E-02    991.559992
0000000071   2.09458201    1.00000000   0.101011850E-02    991.558027
0000000072   2.09064117    1.00000000   0.101011850E-02    991.556063
0000000073   2.08670033    1.00000000   0.101011850E-02    991.554098
0000000074   2.08275947    1.00000000   0.101011850E-02    991.552133
0000000075   2.07881861    1.00000000   0.101011850E-02    991.550168
0000000076   2.07487775    1.00000000   0.101011850E-02    991.548202
0000000077   2.07093688    1.00000000   0.101011850E-02    991.546237
0000000078   2.06699600    1.00000000   0.101011850E-02    991.544272
0000000079   2.06305511    1.00000000   0.101011850E-02    991.542306
0000000080   2.05911422    1.00000000   0.101011850E-02    991.540341
0000000081   2.05517332    1.00000000   0.101011850E-02    991.538375
0000000082   2.05123241    1.00000000   0.101011850E-02    991.536409
0000000083   2.04729150    1.00000000   0.101011850E-02    991.534443
0000000084   2.04335058    1.00000000   0.101011850E-02    991.532477
0000000085   2.03940965    1.00000000   0.101011850E-02    991.530511
0000000086   2.03546872    1.00000000   0.101011850E-02    991.528545
0000000087   2.03152778    1.00000000   0.101011850E-02    991.526578
0000000088   2.02758683    1.00000000   0.101011850E-02    991.524612
0000000089   2.02364587    1.00000000   0.101011850E-02    991.522645
0000000090   2.01970491    1.00000000   0.101011850E-02    991.520679
0000000091   2.01576394    1.00000000   0.101011850E-02    991.518712
0000000092   2.01182297    1.00000000   0.101011850E-02    991.516745
0000000093   2.00788199    1.00000000   0.101011850E-02    991.514778
0000000094   2.00394100    1.00000000   0.101011850E-02    991.512811
0000000095   2.00000000    1.00000000   0.101011850E-02    991.510844
0000000096   2.39406570    1.00000000   0.101011850E-02    991.707047
0000000097   2.39012538    1.00000000   0.101011850E-02    991.705090
0000000098   2.38618505    1.00000000   0.101011850E-02    991.703133
0000000099   2.38224472    1.00000000   0.101011850E-02    991.701176
0000000100   2.37830438    1.00000000   0.101011850E-02    991.699218
0000000101   2.37436403    1.00000000   0.101011850E-02    991.697261
0000000102   2.37042368    1.00000000   0.101011850E-02    991.695304
0000000103   2.36648332    1.00000000   0.101011850E-02    991.693346
0000000104   2.36254295    1.00000000   0.101011850E-02    991.691388
0000000105   2.35860258    1.00000000   0.101011850E-02    991.689431
0000000106   2.35466220    1.00000000   0.101011850E-02    991.687473
0000000107   2.35072181    1.00000000   0.101011850E-02    991.685515
0000000108   2.34678142    1.00000000   0.101011850E-02    991.683557
0000000109   2.34284101    1.00000000   0.101011850E-02    991.681599
0000000110   2.33890061    1.00000000   0.101011850E-02    991.679641
0000000111   2.33496019    1.00000000   0.101011850E-02    991.677682
0000000112   2.33101977    1.00000000   0.101011850E-02    991.675724
0000000113   2.32707934    1.00000000   0.101011850E-02    991.673765
0000000114   2.32313891    1.00000000   0.101011850E-02    991.671807
0000000115   2.31919847    1.00000000   0.101011850E-02    991.669848
0000000116   2.31525802    1.00000000   0.101011850E-02    991.667889
0000000117   2.31131756    1.00000000   0.101011850E-02    991.665930
0000000118   2.30737710    1.00000000   0.101011850E-02    991.663971
0000000119   2.30343663    1.00000000   0.101011850E-02    991.662012
0000000120   2.29949616    1.00000000   0.101011850E-02    991.660052
0000000121   2.29555567    1.00000000   0.101011850E-02    991.658093
0000000122   2.29161518    1.00000000   0.101011850E-02    991.656134
0000000123   2.28767469    1.00000000   0.101011850E-02    991.654174
0000000124   2.28373418    1.00000000   0.101011850E-02    991.652214
0000000125   2.27979367    1.00000000   0.101011850E-02    991.650254
0000000126   2.27585316    1.00000000   0.101011850E-02    991.648295
0000000127   2.27191263    1.00000000   0.101011850E-02    991.646335
0000000128   2.26797210    1.00000000   0.101011850E-02    991.644374
0000000129   2.26403157    1.00000000   0.101011850E-02    991.642414
0000000130   2.26009102    1.00000000   0.101011850E-02    991.640454
0000000131   2.25615047    1.00000000   0.101011850E-02    991.638494
0000000132   2.25220992    1.00000000   0.101011850E-02    991.636533
0000000133   2.24826935    1.00000000   0.101011850E-02    991.634572
0000000134   2.24432878    1.00000000   0.101011850E-02    991.632612
0000000135   2.24038820    1.00000000   0.101011850E-02    991.630651
0000000136   2.23644762    1.00000000   0.101011850E-02    991.628690
0000000137   2.23250703    1.00000000   0.101011850E-02    991.626729
0000000138   2.22856643    1.00000000   0.101011850E-02    991.624768
0000000139   2.22462582    1.00000000   0.101011850E-02    991.622807
0000000140   2.22068521    1.00000000   0.101011850E-02    991.620845
0000000141   2.21674459    1.00000000   0.101011850E-02    991.618884
0000000142   2.21280397    1.00000000   0.101011850E-02    991.616922
0000000143   2.20886333    1.00000000   0.101011850E-02    991.614961
0000000144   2.20492269    1.00000000   0.101011850E-02    991.612999
0000000145   2.20098205    1.00000000   0.101011850E-02    991.611037
0000000146   2.17339733    1.00000000   0.101011850E-02    991.597301
0000000147   2.16945662    1.00000000   0.101011850E-02    991.595338
0000000148   2.16551592    1.00000000   0.101011850E-02    991.593375
0000000149   2.16157520    1.00000000   0.101011850E-02    991.591413
0000000150   2.15763448    1.00000000   0.101011850E-02    991.589450
0000000151   2.15369375    1.00000000   0.101011850E-02    991.587486
0000000152   2.14975302    1.00000000   0.101011850E-02    991.585523
0000000153   2.14581228    1.00000000   0.101011850E-02    991.583560
0000000154   2.14187153    1.00000000   0.101011850E-02    991.581596
0000000155   2.13793077    1.00000000   0.101011850E-02    991.579633
0000000156   2.13399001    1.00000000   0.101011850E-02    991.577669
0000000157   2.13004924    1.00000000   0.101011850E-02    991.575706
0000000158   2.12610846    1.00000000   0.101011850E-02    991.573742
0000000159   2.12216768    1.00000000   0.101011850E-02    991.571778
0000000160   2.11822689    1.00000000   0.101011850E-02    991.569814
0000000161   2.11428609    1.00000000   0.101011850E-02    991.567850
0000000162   2.11034529    1.00000000   0.101011850E-02    991.565885
0000000163   2.10640448    1.00000000   0.101011850E-02    991.563921
0000000164   2.10246366    1.00000000   0.101011850E-02    991.561957
0000000165   2.09852284    1.00000000   0.101011850E-02    991.559992
0000000166   2.09458201    1.00000000   0.101011850E-02    991.558027
0000000167   2.09064117    1.00000000   0.101011850E-02    991.556063
0000000168   2.08670033    1.00000000   0.101011850E-02    991.554098
0000000169   2.08275947    1.00000000   0.101011850E-02    991.552133
0000000170   2.07881861    1.00000000   0.101011850E-02    991.550168
0000000171   2.07487775    1.00000000   0.101011850E-02    991.548202
0000000172   2.07093688    1.00000000   0.101011850E-02    991.546237
0000000173   2.06699600    1.00000000   0.101011850E-02    991.544272
0000000174   2.06305511    1.00000000   0.101011850E-02    991.542306
0000000175   2.05911422    1.00000000   0.101011850E-02    991.540341
0000000176   2.05517332    1.00000000   0.101011850E-02    991.538375
0000000177   2.05123241    1.00000000   0.101011850E-02    991.536409
0000000178   2.04729150    1.00000000   0.101011850E-02    991.534443
0000000179   2.04335058    1.00000000   0.101011850E-02    991.532477
0000000180   2.03940965    1.00000000   0.101011850E-02    991.530511
0000000181   2.03546872    1.00000000   0.101011850E-02    991.528545
0000000182   2.03152778    1.00000000   0.101011850E-02    991.526578
0000000183   2.02758683    1.00000000   0.101011850E-02    991.524612
0000000184   2.02364587    1.00000000   0.101011850E-02    991.522645
0000000185   2.01970491    1.00000000   0.101011850E-02    991.520679
0000000186   2.01576394    1.00000000   0.101011850E-02    991.518712
0000000187   2.01182297    1.00000000   0.101011850E-02    991.516745
0000000188   2.00788199    1.00000000   0.101011850E-02    991.514778
0000000189   2.00394100    1.00000000   0.101011850E-02    991.512811
0000000190   2.00000000    1.00000000   0.101011850E-02    991.510844
0000000191   2.39406570    1.00000000   0.101011850E-02    991.707047
0000000192   2.39012538    1.00000000   0.101011850E-02    991.705090
0000000193   2.38618505    1.00000000   0.101011850E-02    991.703133
0000000194   2.38224472    1.00000000   0.101011850E-02    991.701176
0000000195   2.37830438    1.00000000   0.101011850E-02    991.699218
0000000196   2.37436403    1.00000000   0.101011850E-02    991.697261
0000000197   2.37042368    1.00000000   0.101011850E-02    991.695304
0000000198   2.36648332    1.00000000   0.101011850E-02    991.693346
0000000199   2.36254295    1.00000000   0.101011850E-02    991.691388
0000000200   2.35860258    1.00000000   0.101011850E-02    991.689431
0000000201   2.35466220    1.00000000   0.101011850E-02    991.687473
0000000202   2.35072181    1.00000000   0.101011850E-02    991.685515
0000000203   2.34678142    1.00000000   0.101011850E-02    991.683557
0000000204   2.34284101    1.00000000   0.101011850E-02    991.681599
0000000205   2.33890061    1.00000000   0.101011850E-02    991.679641
0000000206   2.33496019    1.00000000   0.101011850E-02    991.677682
0000000207   2.33101977    1.00000000   0.101011850E-02    991.675724
0000000208   2.32707934    1.00000000   0.101011850E-02    991.673765
0000000209   2.32313891    1.00000000   0.101011850E-02    991.671807
0000000210   2.31919847    1.00000000   0.101011850E-02    991.669848
0000000211   2.31525802    1.00000000   0.101011850E-02    991.667889
0000000212   2.31131756    1.00000000   0.101011850E-02    991.665930
0000000213   2.30737710    1.00000000   0.101011850E-02    991.663971
0000000214   2.30343663    1.00000000   0.101011850E-02    991.662012
0000000215   2.29949616    1.00000000   0.101011850E-02    991.660052
0000000216   2.29555567    1.00000000   0.101011850E-02    991.658093
0000000217   2.29161518    1.00000000   0.101011850E-02    991.656134
0000000218   2.28767469    1.00000000   0.101011850E-02    991.654174
0000000219   2.28373418    1.00000000   0.101011850E-02    991.652214
0000000220   2.27979367    1.00000000   0.101011850E-02    991.650254
0000000221   2.27585316    1.00000000   0.101011850E-02    991.648295
0000000222   2.27191263    1.00000000   0.101011850E-02    991.646335
0000000223   2.26797210    1.00000000   0.101011850E-02    991.644374
0000000224   2.26403157    1.00000000   0.101011850E-02    991.642414
0000000225   2.26009102    1.00000000   0.101011850E-02    991.640454
0000000226   2.25615047    1.00000000   0.101011850E-02    991.638494
0000000227   2.25220992    1.00000000   0.101011850E-02    991.636533
0000000228   2.24826935    1.00000000   0.101011850E-02    991.634572
0000000229   2.24432878    1.00000000   0.101011850E-02    991.632612
0000000230   2.24038820    1.00000000   0.101011850E-02    991.630651
0000000231   2.23644762    1.00000000   0.101011850E-02    991.628690
0000000232   2.23250703    1.00000000   0.101011850E-02    991.626729
0000000233   2.22856643    1.00000000   0.101011850E-02    991.624768
0000000234   2.22462582    1.00000000   0.101011850E-02    991.622807
0000000235   2.22068521    1.00000000   0.101011850E-02    991.620845
0000000236   2.21674459    1.00000000   0.101011850E-02    991.618884
0000000237   2.21280397    1.00000000   0.101011850E-02    991.616922
0000000238   2.20886333    1.00000000   0.101011850E-02    991.614961
0000000239   2.20492269    1.00000000   0.101011850E-02    991.612999
0000000240   2.20098205    1.00000000   0.101011850E-02    991.611037
0000000241   2.17339733    1.00000000   0.101011850E-02    991.597301
0000000242   2.16945662    1.00000000   0.101011850E-02    991.595338
0000000243   2.16551592    1.00000000   0.101011850E-02    991.593375
0000000244   2.16157520    1.00000000   0.101011850E-02    991.591413
0000000245   2.15763448    1.00000000   0.101011850E-02    991.589450
0000000246   2.15369375    1.00000000   0.101011850E-02    991.587486
0000000247   2.14975302    1.00000000   0.101011850E-02    991.585523
0000000248   2.14581228    1.00000000   0.101011850E-02    991.583560
0000000249   2.14187153    1.00000000   0.101011850E-02    991.581596
0000000250   2.13793077    1.00000000   0.101011850E-02    991.579633
0000000251   2.13399001    1.00000000   0.101011850E-02    991.577669
0000000252   2.13004924    1.00000000   0.101011850E-02    991.575706
0000000253   2.12610846    1.00000000   0.101011850E-02    991.573742
0000000254   2.12216768    1.00000000   0.101011850E-02    991.571778
0000000255   2.11822689    1.00000000   0.101011850E-02    991.569814
0000000256   2.11428609    1.00000000   0.101011850E-02    991.567850
0000000257   2.11034529    1.00000000   0.101011850E-02    991.565885
0000000258   2.10640448    1.00000000   0.101011850E-02    991.563921
0000000259   2.10246366    1.00000000   0.101011850E-02    991.561957
0000000260   2.09852284    1.00000000   0.101011850E-02    991.559992
0000000261   2.09458201    1.00000000   0.101011850E-02    991.558027
0000000262   2.09064117    1.00000000   0.101011850E-02    991.556063
0000000263   2.08670033    1.00000000   0.101011850E-02    991.554098
0000000264   2.08275947    1.00000000   0.101011850E-02    991.552133
0000000265   2.07881861    1.00000000   0.101011850E-02    991.550168
0000000266   2.07487775    1.00000000   0.101011850E-02    991.548202
0000000267   2.07093688    1.00000000   0.101011850E-02    991.546237
0000000268   2.06699600    1.00000000   0.101011850E-02    991.544272
0000000269   2.06305511    1.00000000   0.101011850E-02    991.542306
0000000270   2.05911422    1.00000000   0.101011850E-02    991.540341
0000000271   2.05517332    1.00000000   0.101011850E-02    991.538375
0000000272   2.05123241    1.00000000   0.101011850E-02    991.536409
0000000273   2.04729150    1.00000000   0.101011850E-02    991.534443
0000000274   2.04335058    1.00000000   0.101011850E-02    991.532477
0000000275   2.03940965    1.00000000   0.101011850E-02    991.530511
0000000276   2.03546872    1.00000000   0.101011850E-02    991.528545
0000000277   2.03152778    1.00000000   0.101011850E-02    991.526578
0000000278   2.02758683    1.00000000   0.101011850E-02    991.524612
0000000279   2.02364587    1.00000000   0.101011850E-02    991.522645
0000000280   2.01970491    1.00000000   0.101011850E-02    991.520679
0000000281   2.01576394    1.00000000   0.101011850E-02    991.518712
0000000282   2.01182297    1.00000000   0.101011850E-02    991.516745
0000000283   2.00788199    1.00000000   0.101011850E-02    991.514778
0000000284   2.00394100    1.00000000   0.101011850E-02    991.512811
0000000285   2.00000000    1.00000000   0.101011850E-02    991.510844
0000000286   2.39406570    1.00000000   0.101011850E-02    991.707047
0000000287   2.39012538    1.00000000   0.101011850E-02    991.705090
0000000288   2.38618505    1.00000000   0.101011850E-02    991.703133
0000000289   2.38224472    1.00000000   0.101011850E-02    991.701176
0000000290   2.37830438    1.00000000   0.101011850E-02    991.699218
0000000291   2.37436403    1.00000000   0.101011850E-02    991.697261
0000000292   2.37042368    1.00000000   0.101011850E-02    991.695304
0000000293   2.36648332    1.00000000   0.101011850E-02    991.693346
0000000294   2.36254295    1.00000000   0.101011850E-02    991.691388
0000000295   2.35860258    1.00000000   0.101011850E-02    991.689431
0000000296   2.35466220    1.00000000   0.101011850E-02    991.687473
0000000297   2.35072181    1.00000000   0.101011850E-02    991.685515
0000000298   2.34678142    1.00000000   0.101011850E-02    991.683557
0000000299   2.34284101    1.00000000   0.101011850E-02    991.681599
0000000300   2.33890061    1.00000000   0.101011850E-02    991.679641
0000000301   2.33496019    1.00000000   0.101011850E-02    991.677682
0000000302   2.33101977    1.00000000   0.101011850E-02    991.675724
0000000303   2.32707934    1.00000000   0.101011850E-02    991.673765
0000000304   2.32313891    1.00000000   0.101011850E-02    991.671807
0000000305   2.31919847    1.00000000   0.101011850E-02    991.669848
0000000306   2.31525802    1.00000000   0.101011850E-02    991.667889
0000000307   2.31131756    1.00000000   0.101011850E-02    991.665930
0000000308   2.30737710    1.00000000   0.101011850E-02    991.663971
0000000309   2.30343663    1.00000000   0.101011850E-02    991.662012
0000000310   2.29949616    1.00000000   0.101011850E-02    991.660052
0000000311   2.29555567    1.00000000   0.101011850E-02    991.658093
0000000312   2.29161518    1.00000000   0.101011850E-02    991.656134
0000000313   2.28767469    1.00000000   0.101011850E-02    991.654174
0000000314   2.28373418    1.00000000   0.101011850E-02    991.652214
0000000315   2.27979367    1.00000000   0.101011850E-02    991.650254
0000000316   2.27585316    1.00000000   0.101011850E-02    991.648295
0000000317   2.27191263    1.00000000   0.101011850E-02    991.646335
0000000318   2.26797210    1.00000000   0.101011850E-02    991.644374
0000000319   2.26403157    1.00000000   0.101011850E-02    991.642414
0000000320   2.26009102    1.00000000   0.101011850E-02    991.640454
0000000321   2.25615047    1.00000000   0.101011850E-02    991.638494
0000000322   2.25220992    1.00000000   0.101011850E-02    991.636533
0000000323   2.24826935    1.00000000   0.101011850E-02    991.634572
0000000324   2.24432878    1.00000000   0.101011850E-02    991.632612
0000000325   2.24038820    1.00000000   0.101011850E-02    991.630651
0000000326   2.23644762    1.00000000   0.101011850E-02    991.628690
0000000327   2.23250703    1.00000000   0.101011850E-02    991.626729
0000000328   2.22856643    1.00000000   0.101011850E-02    991.624768
0000000329   2.22462582    1.00000000   0.101011850E-02    991.622807
0000000330   2.22068521    1.00000000   0.101011850E-02    991.620845
0000000331   2.21674459    1.00000000   0.101011850E-02    991.618884
0000000332   2.21280397    1.00000000   0.101011850E-02    991.616922
0000000333   2.20886333    1.00000000   0.101011850E-02    991.614961
0000000334   2.20492269    1.00000000   0.101011850E-02    991.612999
0000000335   2.20098205    1.00000000   0.101011850E-02    991.611037
0000000336   2.17339733    1.00000000   0.101011850E-02    991.597301
0000000337   2.16945662    1.00000000   0.101011850E-02    991.595338
0000000338   2.16551592    1.00000000   0.101011850E-02    991.593375
0000000339   2.16157520    1.00000000   0.101011850E-02    991.591413
0000000340   2.15763448    1.00000000   0.101011850E-02    991.589450
0000000341   2.15369375    1.00000000   0.101011850E-02    991.587486
0000000342   2.14975302    1.00000000   0.101011850E-02    991.585523
0000000343   2.14581228    1.00000000   0.101011850E-02    991.583560
0000000344   2.14187153    1.00000000   0.101011850E-02    991.581596
0000000345   2.13793077    1.00000000   0.101011850E-02    991.579633
0000000346   2.13399001    1.00000000   0.101011850E-02    991.577669
0000000347   2.13004924    1.00000000   0.101011850E-02    991.575706
0000000348   2.12610846    1.00000000   0.101011850E-02    991.573742
0000000349   2.12216768    1.00000000   0.101011850E-02    991.571778
0000000350   2.11822689    1.00000000   0.101011850E-02    991.569814
0000000351   2.11428609    1.00000000   0.101011850E-02    991.567850
0000000352   2.11034529    1.00000000   0.101011850E-02    991.565885
0000000353   2.10640448    1.00000000   0.101011850E-02    991.563921
0000000354   2.10246366    1.00000000   0.101011850E-02    991.561957
0000000355   2.09852284    1.00000000   0.101011850E-02    991.559992
0000000356   2.09458201    1.00000000   0.101011850E-02    991.558027
0000000357   2.09064117    1.00000000   0.101011850E-02    991.556063
0000000358   2.08670033    1.00000000   0.101011850E-02    991.554098
0000000359   2.08275947    1.00000000   0.101011850E-02    991.552133
0000000360   2.07881861    1.00000000   0.101011850E-02    991.550168
0000000361   2.07487775    1.00000000   0.101011850E-02    991.548202
0000000362   2.07093688    1.00000000   0.101011850E-02    991.546237
0000000363   2.06699600    1.00000000   0.101011850E-02    991.544272
0000000364   2.06305511    1.00000000   0.101011850E-02    991.542306
0000000365   2.05911422    1.00000000   0.101011850E-02    991.540341
0000000366   2.05517332    1.00000000   0.101011850E-02    991.538375
0000000367   2.05123241    1.00000000   0.101011850E-02    991.536409
0000000368   2.04729150    1.00000000   0.101011850E-02    991.534443
0000000369   2.04335058    1.00000000   0.101011850E-02    991.532477
0000000370   2.03940965    1.00000000   0.101011850E-02    991.530511
0000000371   2.03546872    1.00000000   0.101011850E-02    991.528545
0000000372   2.03152778    1.00000000   0.101011850E-02    991.526578
0000000373   2.02758683    1.00000000   0.101011850E-02    991.524612
0000000374   2.02364587    1.00000000   0.101011850E-02    991.522645
0000000375   2.01970491    1.00000000   0.101011850E-02    991.520679
0000000376   2.01576394    1.00000000   0.101011850E-02    991.518712
0000000377   2.01182297    1.00000000   0.101011850E-02    991.516745
0000000378   2.00788199    1.00000000   0.101011850E-02    991.514778
0000000379   2.00394100    1.00000000   0.101011850E-02    991.512811
0000000380   2.00000000    1.00000000   0.101011850E-02    991.510844
0000000381   2.19704140    1.00000000   0.101011850E-02    991.609075
0000000382   2.19507107    1.00000000   0.101011850E-02    991.608094
0000000383   2.19310073    1.00000000   0.101011850E-02    991.607113
0000000384   2.19113040    1.00000000   0.101011850E-02    991.606132
0000000385   2.18916007    1.00000000   0.101011850E-02    991.605151
0000000386   2.18718973    1.00000000   0.101011850E-02    991.604170
0000000387   2.18521939    1.00000000   0.101011850E-02    991.603188
0000000388   2.18324905    1.00000000   0.101011850E-02    991.602207
0000000389   2.18127871    1.00000000   0.101011850E-02    991.601226
0000000390   2.17930836    1.00000000   0.101011850E-02    991.600245
0000000391   2.17733802    1.00000000   0.101011850E-02    991.599264
0000000392   2.19704140    1.00000000   0.101011850E-02    991.609075
0000000393   2.19507107    1.00000000   0.101011850E-02    991.608094
0000000394   2.19310073    1.00000000   0.101011850E-02    991.607113
0000000395   2.19113040    1.00000000   0.101011850E-02    991.606132
0000000396   2.18916007    1.00000000   0.101011850E-02    991.605151
0000000397   2.18718973    1.00000000   0.101011850E-02    991.604170
0000000398   2.18521939    1.00000000   0.101011850E-02    991.603188
0000000399   2.18324905    1.00000000   0.101011850E-02    991.602207
0000000400   2.18127871    1.00000000   0.101011850E-02    991.601226
0000000401   2.17930836    1.00000000   0.101011850E-02    991.600245
0000000402   2.17733802    1.00000000   0.101011850E-02    991.599264
0000000403   2.19704140    1.00000000   0.101011850E-02    991.609075
0000000404   2.19507107    1.00000000   0.101011850E-02    991.608094
0000000405   2.19310073    1.00000000   0.101011850E-02    991.607113
0000000406   2.19113040    1.00000000   0.101011850E-02    991.606132
0000000407   2.18916007    1.00000000   0.101011850E-02    991.605151
0000000408   2.18718973    1.00000000   0.101011850E-02    991.604170
0000000409   2.18521939    1.00000000   0.101011850E-02    991.603188
0000000410   2.18324905    1.00000000   0.101011850E-02    991.602207
0000000411   2.18127871    1.00000000   0.101011850E-02    991.601226
0000000412   2.17930836    1.00000000   0.101011850E-02    991.600245
0000000413   2.17733802    1.00000000   0.101011850E-02    991.599264
0000000414   2.19704140    1.00000000   0.101011850E-02    991.609075
0000000415   2.19507107    1.00000000   0.101011850E-02    991.608094
0000000416   2.19310073    1.00000000   0.101011850E-02    991.607113
0000000417   2.19113040    1.00000000   0.101011850E-02    991.606132
0000000418   2.18916007    1.00000000   0.101011850E-02    991.605151
0000000419   2.18718973    1.00000000   0.101011850E-02    991.604170
0000000420   2.18521939    1.00000000   0.101011850E-02    991.603188
0000000421   2.18324905    1.00000000   0.101011850E-02    991.602207
0000000422   2.18127871    1.00000000   0.101011850E-02    991.601226
0000000423   2.17930836    1.00000000   0.101011850E-02    991.600245
0000000424   2.17733802    1.00000000   0.101011850E-02    991.599264
